nlay = 40
Densities are arbitrarily scaled to fit easily on graph and
also to give sensible opacity/bar at the reference wavelength of 825 nm
particles/cm3 have been multiplied by an additional factor for 1000
Pressure (bar), aerosol1 (particle/gram), aerosol2 (particle/gram), aerosol1 (particle/cm3), aerosol2 (particle/cm3)
      10.0000     0.199093  1.05820e-33     0.155868  8.28456e-34
      7.91406     0.321296  1.05820e-33     0.213481  7.03107e-34
      6.26328     0.487827  1.05820e-33     0.275109  5.96772e-34
      4.95681     0.696866  1.05820e-33     0.333899  5.07032e-34
      3.92284     0.936602  1.05820e-33     0.381350  4.30861e-34
      3.10454      1.18436  1.05820e-33     0.409947  3.66281e-34
      2.45703      1.40902  1.05820e-33     0.414982  3.11660e-34
      1.94445      1.57720  1.05820e-33     0.395723  2.65505e-34
      1.53885      1.66100  1.05820e-33     0.354505  2.25851e-34
      1.21783      1.64577  1.05820e-33     0.299201  1.92381e-34
     0.963839      1.53425  8.83514e-27     0.238422  1.37298e-27
     0.762789      1.34567  1.88467e-19     0.178384  2.49835e-20
     0.603677      1.11046  2.60501e-13     0.125233  2.93783e-14
     0.477751     0.862147  2.33399e-08    0.0820066  2.22007e-09
     0.378092     0.629763  0.000135494    0.0496444  1.06810e-05
     0.299230     0.432824    0.0509321    0.0278430   0.00327639
     0.236809     0.279859      1.24144    0.0146077    0.0647991
     0.187415     0.170261      1.96029   0.00717725    0.0826353
     0.148323    0.0974560     0.200640   0.00330373   0.00680165
     0.117386    0.0524848   0.00133133   0.00142677  3.61914e-05
    0.0928972    0.0265896  5.71475e-07  0.000574882  1.23556e-08
    0.0735195    0.0126751  1.59110e-11  0.000213724  2.68287e-13
    0.0581837   0.00568470  2.87008e-17  7.40370e-05  3.73797e-19
    0.0460469   0.00239875  3.35494e-24  2.40980e-05  3.37040e-26
    0.0364427  0.000952409  2.54629e-32  7.36058e-06  1.96787e-34
    0.0288411  0.000355756  1.05820e-33  2.11573e-06  6.29327e-36
    0.0228249  0.000125020  1.05820e-33  5.70665e-07  4.83024e-36
    0.0180638  4.13375e-05  1.05820e-33  1.44812e-07  3.70706e-36
    0.0142955  1.28578e-05  1.05820e-33  3.47171e-08  2.85724e-36
    0.0113142  3.76445e-06  1.05820e-33  7.82991e-09  2.20102e-36
   0.00895381  1.03642e-06  1.05820e-33  1.66199e-09  1.69693e-36
   0.00708604  2.68503e-07  1.05820e-33  3.32322e-10  1.30972e-36
   0.00560797  6.54515e-08  1.05820e-33  6.27644e-11  1.01476e-36
   0.00443816  1.50099e-08  1.05820e-33  1.12076e-11  7.90138e-37
   0.00351237  3.23866e-09  1.05820e-33  1.88895e-12  6.17196e-37
   0.00277977  6.57569e-10  1.05820e-33  3.00319e-13  4.83292e-37
   0.00219993  1.25597e-10  1.05820e-33  4.50157e-14  3.79276e-37
   0.00174104  2.25704e-11  1.05820e-33  6.35716e-15  2.98052e-37
   0.00137788  3.81627e-12  1.05820e-33  8.45319e-16  2.34396e-37
   0.00109049  6.07195e-13  1.05820e-33  1.05823e-16  1.84425e-37
 
Spectra calculated with opaque layer at various pressures. 
Wavelength (nm), pressures bar) :       9.00000      7.00000      5.00000
      3.00000      2.00000      1.50000      1.00000     0.700000     0.500000
     0.300000     0.100000
      600.000     0.817604     0.791820     0.748331     0.652777     0.537214
     0.437546     0.291893     0.190273     0.126845    0.0814963   0.00292530
      601.000     0.816716     0.791081     0.747695     0.652220     0.536714
     0.437105     0.291557     0.190031     0.126676    0.0813970   0.00290753
      602.000     0.813300     0.788310     0.745589     0.650881     0.535832
     0.436470     0.291174     0.189781     0.126505    0.0812969   0.00288988
      603.000     0.807379     0.783311     0.741675     0.648405     0.534310
     0.435477     0.290684     0.189501     0.126323    0.0811904   0.00287223
      604.000     0.805025     0.780969     0.739502     0.646696     0.533087
     0.434596     0.290194     0.189210     0.126135    0.0810821   0.00285476
      605.000     0.805458     0.780996     0.739172     0.646068     0.532423
     0.433997     0.289758     0.188919     0.125944    0.0809726   0.00283748
      606.000     0.803431     0.779141     0.737559     0.644823     0.531474
     0.433252     0.289273     0.188606     0.125743    0.0808586   0.00282029
      607.000     0.801534     0.777400     0.736033     0.643606     0.530505
     0.432464     0.288737     0.188255     0.125516    0.0807295   0.00279902
      608.000     0.800636     0.776429     0.735021     0.642609     0.529612
     0.431698     0.288199     0.187905     0.125297    0.0806072   0.00278213
      609.000     0.798914     0.774831     0.733574     0.641396     0.528621
     0.430889     0.287656     0.187560     0.125081    0.0804870   0.00276535
      610.000     0.796126     0.772397     0.731519     0.639826     0.527423
     0.429955     0.287065     0.187194     0.124854    0.0803602   0.00274864
      611.000     0.790524     0.767560     0.727554     0.637030     0.525479
     0.428549     0.286275     0.186747     0.124593    0.0802179   0.00273195
      612.000     0.779277     0.757847     0.719676     0.631677     0.521924
     0.426088     0.284999     0.186078     0.124226    0.0800257   0.00271493
      613.000     0.761745     0.742475     0.707037     0.623021     0.516247
     0.422232     0.283079     0.185118     0.123723    0.0797694   0.00269760
      614.000     0.741029     0.724247     0.692034     0.612789     0.509578
     0.417729     0.280866     0.184023     0.123155    0.0794805   0.00268010
      615.000     0.722390     0.707793     0.678465     0.603525     0.503524
     0.413625     0.278826     0.183003     0.122620    0.0792084   0.00266291
      616.000     0.706243     0.693538     0.666758     0.595634     0.498434
     0.410199     0.277129     0.182143     0.122161    0.0789685   0.00264595
      617.000     0.688287     0.677223     0.652885     0.585823     0.491915
     0.405753     0.274922     0.181050     0.121595    0.0786817   0.00262885
      618.000     0.668859     0.659163     0.637089     0.574218     0.484020
     0.400298     0.272176     0.179682     0.120886    0.0783223   0.00261131
      619.000     0.656269     0.647288     0.626497     0.566201     0.478450
     0.396396     0.270177     0.178670     0.120354    0.0780501   0.00259470
      620.000     0.659331     0.650063     0.628813     0.567706     0.479299
     0.396858     0.270270     0.178627     0.120278    0.0779911   0.00257606
      621.000     0.673271     0.662861     0.639785     0.575422     0.484274
     0.400113     0.271713     0.179226     0.120518    0.0780865   0.00256265
      622.000     0.693864     0.681667     0.655839     0.586716     0.491618
     0.404968     0.273922     0.180178     0.120924    0.0782583   0.00254974
      623.000     0.717060     0.702648     0.673527     0.598927     0.499448
     0.410106     0.276250     0.181190     0.121363    0.0784486   0.00253718
      624.000     0.738072     0.721533     0.689337     0.609754     0.506345
     0.414594     0.278243     0.182028     0.121708    0.0785895   0.00252430
      625.000     0.755963     0.737254     0.702121     0.618145     0.511555
     0.417946     0.279704     0.182624     0.121941    0.0786781   0.00251110
      626.000     0.771073     0.750171     0.712365     0.624705     0.515606
     0.420556     0.280858     0.183103     0.122120    0.0787240   0.00249799
      627.000     0.781990     0.759183     0.719263     0.628976     0.518197
     0.422206     0.281567     0.183376     0.122201    0.0787233   0.00248463
      628.000     0.789186     0.765015     0.723643     0.631612     0.519778
     0.423210     0.281987     0.183517     0.122220    0.0786923   0.00247114
      629.000     0.794025     0.768892     0.726534     0.633337     0.520798
     0.423843     0.282232     0.183581     0.122202    0.0786445   0.00245766
      630.000     0.797083     0.771298     0.728297     0.634379     0.521418
     0.424230     0.282375     0.183600     0.122165    0.0785876   0.00244421
      631.000     0.798682     0.772573     0.729253     0.634966     0.521782
     0.424462     0.282455     0.183595     0.122117    0.0785255   0.00243082
      632.000     0.799479     0.773237     0.729775     0.635308     0.522004
     0.424608     0.282500     0.183574     0.122062    0.0784600   0.00241752
      633.000     0.799864     0.773595     0.730088     0.635542     0.522171
     0.424723     0.282533     0.183549     0.122006    0.0783942   0.00240433
      634.000     0.799881     0.773671     0.730210     0.635680     0.522286
     0.424802     0.282544     0.183507     0.121936    0.0783192   0.00238769
      635.000     0.799551     0.773465     0.730115     0.635688     0.522333
     0.424850     0.282555     0.183476     0.121878    0.0782518   0.00237472
      636.000     0.798642     0.772787     0.729669     0.635493     0.522268
     0.424834     0.282547     0.183438     0.121816    0.0781831   0.00236184
      637.000     0.797784     0.772135     0.729227     0.635286     0.522189
     0.424807     0.282532     0.183398     0.121755    0.0781145   0.00234907
      638.000     0.797875     0.772269     0.729371     0.635406     0.522280
     0.424869     0.282542     0.183364     0.121695    0.0780464   0.00233638
      639.000     0.797481     0.772038     0.729270     0.635403     0.522306
     0.424896     0.282538     0.183326     0.121634    0.0779778   0.00232382
      640.000     0.796324     0.771225     0.728767     0.635196     0.522233
     0.424869     0.282518     0.183281     0.121570    0.0779080   0.00231134
      641.000     0.794332     0.769815     0.727893     0.634827     0.522078
     0.424793     0.282473     0.183225     0.121501    0.0778356   0.00229894
      642.000     0.788217     0.765266     0.724914     0.633492     0.521514
     0.424537     0.282401     0.183168     0.121433    0.0777636   0.00228663
      643.000     0.769323     0.749906     0.713718     0.627602     0.518725
     0.423197     0.282108     0.183092     0.121366    0.0776904   0.00227429
      644.000     0.739540     0.724153     0.693433     0.615492     0.512322
     0.419833     0.281264     0.182915     0.121271    0.0776012   0.00226160
      645.000     0.726300     0.711670     0.682470     0.607827     0.507800
     0.417280     0.280551     0.182745     0.121175    0.0775111   0.00224899
      646.000     0.736872     0.720370     0.688811     0.610992     0.509157
     0.417872     0.280648     0.182730     0.121127    0.0774490   0.00223718
      647.000     0.736933     0.720735     0.689446     0.611756     0.509753
     0.418268     0.280784     0.182740     0.121088    0.0773922   0.00222558
      648.000     0.728495     0.713966     0.684655     0.609420     0.508742
     0.417825     0.280695     0.182695     0.121028    0.0773240   0.00221385
      649.000     0.737558     0.722315     0.691741     0.614116     0.511455
     0.419354     0.281099     0.182725     0.120983    0.0772649   0.00220252
      650.000     0.752295     0.735307     0.702270     0.620742     0.515134
     0.421354     0.281603     0.182774     0.120941    0.0772067   0.00218823
      651.000     0.761956     0.743708     0.708972     0.624903     0.517468
     0.422656     0.281957     0.182814     0.120906    0.0771529   0.00217709
      652.000     0.772442     0.752850     0.716268     0.629362     0.519891
     0.423969     0.282301     0.182854     0.120873    0.0770990   0.00216598
      653.000     0.780432     0.759619     0.721458     0.632337     0.521429
     0.424769     0.282484     0.182850     0.120824    0.0770373   0.00215475
      654.000     0.785280     0.763518     0.724231     0.633692     0.522008
     0.425008     0.282480     0.182788     0.120751    0.0769642   0.00214360
      655.000     0.787037     0.764719     0.724849     0.633733     0.521860
     0.424831     0.282333     0.182675     0.120657    0.0768811   0.00213248
      656.000     0.786736     0.764289     0.724325     0.633206     0.521450
     0.424527     0.282155     0.182557     0.120563    0.0767988   0.00212141
      657.000     0.785574     0.763285     0.723509     0.632659     0.521106
     0.424304     0.282037     0.182471     0.120483    0.0767230   0.00211047
      658.000     0.785170     0.762986     0.723315     0.632572     0.521073
     0.424287     0.282012     0.182425     0.120422    0.0766557   0.00209966
      659.000     0.785103     0.762916     0.723246     0.632512     0.521035
     0.424261     0.281981     0.182376     0.120360    0.0765880   0.00208895
      660.000     0.785211     0.762973     0.723250     0.632466     0.520984
     0.424214     0.281931     0.182315     0.120290    0.0765166   0.00207825
      661.000     0.784751     0.762568     0.722910     0.632216     0.520814
     0.424095     0.281853     0.182244     0.120217    0.0764433   0.00206766
      662.000     0.783292     0.761273     0.721829     0.631457     0.520311
     0.423751     0.281666     0.182122     0.120120    0.0763597   0.00205710
      663.000     0.782462     0.760451     0.721066     0.630857     0.519892
     0.423457     0.281502     0.182011     0.120029    0.0762797   0.00204663
      664.000     0.782650     0.760552     0.721082     0.630796     0.519824
     0.423398     0.281449     0.181951     0.119963    0.0762116   0.00203629
      665.000     0.781739     0.759709     0.720345     0.630250     0.519456
     0.423146     0.281310     0.181855     0.119880    0.0761357   0.00202598
      666.000     0.779800     0.757926     0.718805     0.629138     0.518713
     0.422639     0.281045     0.181695     0.119763    0.0760425   0.00201282
      667.000     0.779485     0.757582     0.718455     0.628835     0.518498
     0.422490     0.280957     0.181623     0.119692    0.0759720   0.00200272
      668.000     0.781965     0.759744     0.720208     0.629995     0.519242
     0.422983     0.281171     0.181688     0.119683    0.0759301   0.00199284
      669.000     0.786729     0.763907     0.723600     0.632268     0.520709
     0.423962     0.281616     0.181857     0.119721    0.0759088   0.00198317
      670.000     0.793520     0.769740     0.728263     0.635320     0.522650
     0.425246     0.282200     0.182091     0.119793    0.0759056   0.00197367
      671.000     0.800702     0.775967     0.733291     0.638637     0.524756
     0.426634     0.282826     0.182342     0.119870    0.0759033   0.00196425
      672.000     0.806718     0.781241     0.737604     0.641543     0.526636
     0.427887     0.283400     0.182572     0.119938    0.0758971   0.00195484
      673.000     0.813573     0.787015     0.742119     0.644406     0.528417
     0.429050     0.283917     0.182770     0.119990    0.0758830   0.00194547
      674.000     0.819131     0.791611     0.745644     0.646589     0.529757
     0.429915     0.284291     0.182903     0.120012    0.0758562   0.00193611
      675.000     0.822625     0.794548     0.747939     0.648044     0.530667
     0.430513     0.284551     0.182989     0.120013    0.0758204   0.00192675
      676.000     0.824273     0.795838     0.748817     0.648412     0.530759
     0.430484     0.284441     0.182869     0.119907    0.0757398   0.00191701
      677.000     0.825277     0.796545     0.749204     0.648437     0.530628
     0.430309     0.284266     0.182722     0.119788    0.0756540   0.00190731
      678.000     0.825250     0.796407     0.748949     0.648072     0.530261
     0.429983     0.284024     0.182545     0.119657    0.0755625   0.00189765
      679.000     0.824071     0.795318     0.747967     0.647258     0.529624
     0.429487     0.283708     0.182337     0.119511    0.0754652   0.00188802
      680.000     0.821619     0.793168     0.746160     0.645923     0.528666
     0.428782     0.283298     0.182087     0.119347    0.0753599   0.00187840
